# Case 2 Radiance, lower limit, uW cm-2 sr-1 um-1, 8 columns for 8 wavelengths in microns: 0.47, 0.49, 0.51, 0.54, 0.59, 0.69, 0.74, 0.79. 
9.05163e+02 1.52385e+03 2.70314e+03 3.79187e+03 4.62106e+03 4.10801e+03 4.13402e+03 3.11068e+03
1.04266e+03 1.85035e+03 3.07038e+03 4.14509e+03 5.05459e+03 4.44757e+03 4.35970e+03 3.27583e+03
1.22337e+03 2.17512e+03 3.47523e+03 4.60938e+03 5.62079e+03 4.70511e+03 4.60436e+03 3.44955e+03
1.44713e+03 2.44732e+03 3.92772e+03 5.14195e+03 6.22253e+03 4.96030e+03 4.92995e+03 3.63470e+03
1.65393e+03 2.71997e+03 4.33739e+03 5.75264e+03 6.79378e+03 5.25538e+03 5.27057e+03 3.84700e+03
1.85126e+03 3.01781e+03 4.74269e+03 6.31969e+03 7.38022e+03 5.57750e+03 5.64873e+03 4.08396e+03
2.05102e+03 3.31564e+03 5.15379e+03 6.91530e+03 8.02047e+03 5.93910e+03 6.00932e+03 4.32128e+03
2.28598e+03 3.64929e+03 5.60618e+03 7.65583e+03 8.72216e+03 6.34741e+03 6.38110e+03 4.55918e+03
2.54559e+03 3.98071e+03 6.06481e+03 8.42128e+03 9.29957e+03 6.75731e+03 6.81303e+03 4.79881e+03
2.80623e+03 4.29283e+03 6.54345e+03 9.13421e+03 9.92941e+03 7.18486e+03 7.22325e+03 5.04401e+03
3.06747e+03 4.60493e+03 7.02608e+03 9.88014e+03 1.06346e+04 7.61240e+03 7.54662e+03 5.28921e+03
3.30054e+03 4.91678e+03 7.53437e+03 1.06254e+04 1.10504e+04 8.03174e+03 7.86998e+03 5.53329e+03
3.52520e+03 5.22864e+03 8.00888e+03 1.13301e+04 1.15568e+04 8.44021e+03 8.17706e+03 5.77663e+03
3.74986e+03 5.54049e+03 8.39006e+03 1.18369e+04 1.23133e+04 8.84868e+03 8.46992e+03 6.01997e+03
3.97452e+03 5.88835e+03 8.77147e+03 1.22719e+04 1.27221e+04 9.17234e+03 8.75692e+03 6.17673e+03
4.21567e+03 6.23875e+03 9.15480e+03 1.27697e+04 1.31064e+04 9.41188e+03 8.98878e+03 6.32738e+03
4.45719e+03 6.57285e+03 9.53817e+03 1.32843e+04 1.35128e+04 9.65146e+03 9.22063e+03 6.47803e+03
1.07628e+04 1.48159e+04 1.74336e+04 2.18182e+04 2.05072e+04 1.41928e+04 1.28650e+04 9.38563e+03
1.74492e+04 2.12407e+04 2.41725e+04 2.83669e+04 2.50265e+04 1.68856e+04 1.47189e+04 1.05648e+04
